TimeStamp,Delta_TP9,Delta_AF7,Delta_AF8,Delta_TP10,Theta_TP9,Theta_AF7,Theta_AF8,Theta_TP10,Alpha_TP9,Alpha_AF7,Alpha_AF8,Alpha_TP10,Beta_TP9,Beta_AF7,Beta_AF8,Beta_TP10,Gamma_TP9,Gamma_AF7,Gamma_AF8,Gamma_TP10,RAW_TP9,RAW_AF7,RAW_AF8,RAW_TP10,AUX_RIGHT,Accelerometer_X,Accelerometer_Y,Accelerometer_Z,Gyro_X,Gyro_Y,Gyro_Z,HeadBandOn,HSI_TP9,HSI_AF7,HSI_AF8,HSI_TP10,Battery
2019-05-21 10:56:59.436,1.1349016,2.1437802,0.93789995,0.4776399,0.42918003,0.8600406,0.1518527,0.3396248,0.40981868,0.9418902,0.7928929,0.65952957,0.9700461,0.34904915,0.62133986,0.50425065,0.91409135,-0.24628326,0.4079492,0.14492844,1596.8132,948.0952,842.9304,846.1539,789.34064,0.138916015625,0.26092529296875,0.95001220703125,-0.994415283203125,3.820648193359375,4.448699951171875,1,4.0,1.0,1.0,1.0,23.17
2019-05-21 10:57:00.452,1.1349016,1.5711246,0.37840977,0.56516695,0.42918003,0.7115067,-0.20469193,0.32683635,0.40981868,0.9418902,-0.111974925,0.5611746,0.9700461,0.21694155,0.66966987,0.2853928,0.91409135,-0.29887062,0.42878726,-0.025955353,3.2234433,928.3516,799.81683,778.86444,873.5531,0.14068603515625,0.263427734375,0.94561767578125,-1.15142822265625,4.18701171875,3.686065673828125,1,4.0,1.0,1.0,1.0,23.17
2019-05-21 10:57:00,,,,,,,,,,,,,,,,,,,,,,,,,,,,,,,,,,,,,,/muse/elements/blink
2019-05-21 10:57:00,,,,,,,,,,,,,,,,,,,,,,,,,,,,,,,,,,,,,,/muse/elements/blink
2019-05-21 10:57:01,,,,,,,,,,,,,,,,,,,,,,,,,,,,,,,,,,,,,,/muse/elements/blink
2019-05-21 10:57:01.455,1.1349016,1.0780762,0.62543327,1.0175956,0.42918003,0.63742954,0.4427232,0.7059102,0.40981868,0.6275297,0.73212093,1.0333749,0.9700461,0.07595469,0.6787519,0.44779226,0.91409135,-0.14437228,0.51964396,0.06363358,0.4029304,904.17584,842.52747,863.8828,886.04395,0.1412353515625,0.26776123046875,0.9378662109375,-1.09161376953125,4.56085205078125,3.880462646484375,1,4.0,1.0,1.0,1.0,23.17
2019-05-21 10:57:01,,,,,,,,,,,,,,,,,,,,,,,,,,,,,,,,,,,,,,/muse/elements/blink
2019-05-21 10:57:02.496,1.1349016,1.7115093,0.90773016,1.2642103,0.42918003,1.3540244,0.79388815,0.91622365,0.40981868,0.75681925,0.7283698,1.0333749,0.9700461,0.48670825,0.7089437,0.57822204,0.91409135,0.21941917,0.5876852,0.1402658,27.399267,897.72894,911.4286,875.9707,861.06226,0.1387939453125,0.270263671875,0.947265625,-0.897216796875,4.388885498046875,4.366455078125,1,4.0,1.0,1.0,1.0,23.17
2019-05-21 10:57:03,,,,,,,,,,,,,,,,,,,,,,,,,,,,,,,,,,,,,,/muse/elements/blink
2019-05-21 10:57:03.508,1.1349016,1.7439947,1.7930801,1.2642103,0.42918003,1.3931702,0.7850677,0.91622365,0.40981868,0.61732227,0.65086806,1.0333749,0.9700461,0.49658138,0.29968968,0.57822204,0.91409135,0.22325271,0.26828855,0.1402658,25.384615,874.35895,839.707,854.21246,807.8755,0.138427734375,0.26507568359375,0.94317626953125,-1.413116455078125,3.84307861328125,3.297271728515625,1,4.0,1.0,1.0,2.0,23.17
2019-05-21 10:57:04.525,1.1349016,1.2115725,1.2795727,0.50779265,0.42918003,0.5843911,0.3229298,-0.28149995,0.40981868,0.53063136,0.5238322,0.28383023,0.9700461,0.68785,0.48427728,0.20746939,0.91409135,0.3082989,0.36084774,-0.021530444,1650.0,872.3443,838.9011,853.4066,871.53845,0.1470947265625,0.27508544921875,0.939208984375,-1.27105712890625,3.7384033203125,4.26177978515625,1,4.0,1.0,1.0,1.0,23.17
2019-05-21 10:57:04,,,,,,,,,,,,,,,,,,,,,,,,,,,,,,,,,,,,,,/muse/elements/blink
2019-05-21 10:57:05,,,,,,,,,,,,,,,,,,,,,,,,,,,,,,,,,,,,,,/muse/elements/blink
2019-05-21 10:57:05.564,1.1349016,1.3863201,1.2946881,0.48245877,0.42918003,1.2863116,0.7682978,-0.33253565,0.40981868,1.3615475,0.6805254,0.3048249,0.9700461,0.6234363,0.6682364,0.20950347,0.91409135,0.22345333,0.35318,-0.033825368,25.384615,867.9121,865.4945,855.0183,821.5751,0.15093994140625,0.27471923828125,0.95166015625,-2.19818115234375,5.54779052734375,5.42816162109375,1,4.0,1.0,1.0,1.0,23.17
2019-05-21 10:57:06,,,,,,,,,,,,,,,,,,,,,,,,,,,,,,,,,,,,,,/muse/elements/blink
2019-05-21 10:57:06.591,1.1349016,1.3223145,1.6816654,0.52217704,0.42918003,1.2672259,1.1773491,-0.53451455,0.40981868,1.3667227,0.82026803,0.27074474,0.9700461,0.18484908,0.6634848,0.2340301,0.91409135,-0.20379409,0.26745096,-0.07298902,25.384615,863.47986,855.0183,855.82416,846.55676,0.1475830078125,0.27471923828125,0.93768310546875,-0.179443359375,5.263671875,4.2767333984375,1,4.0,1.0,1.0,1.0,23.17
2019-05-21 10:57:07.611,1.1349016,1.5473963,1.770844,0.52217704,0.42918003,1.1867499,1.2906631,-0.53451455,0.40981868,0.999928,0.8206647,0.27074474,0.9700461,0.22945131,0.4265761,0.2340301,0.91409135,-0.5317793,0.26981375,-0.07298902,178.09525,868.71796,889.2674,862.674,876.77655,0.15203857421875,0.275146484375,0.940673828125,-0.859832763671875,4.044952392578125,3.69354248046875,1,4.0,1.0,1.0,2.0,23.17
2019-05-21 10:57:08,,,,,,,,,,,,,,,,,,,,,,,,,,,,,,,,,,,,,,/muse/elements/jaw_clench
2019-05-21 10:57:08,,,,,,,,,,,,,,,,,,,,,,,,,,,,,,,,,,,,,,/muse/elements/blink
2019-05-21 10:57:08.630,1.1349016,1.2749871,1.4811603,0.52217704,0.42918003,0.81106675,0.84454566,-0.53451455,0.40981868,0.64931214,0.29457158,0.27074474,0.9700461,0.2897106,0.38443667,0.2340301,0.91409135,-0.09452698,0.2283772,-0.07298902,0.4029304,908.20514,561.685,830.0366,878.7912,0.394775390625,0.23602294921875,0.853759765625,-1.368255615234375,9.353485107421875,3.626251220703125,1,4.0,1.0,1.0,2.0,23.17
2019-05-21 10:57:08,,,,,,,,,,,,,,,,,,,,,,,,,,,,,,,,,,,,,,/muse/elements/jaw_clench
2019-05-21 10:57:09,,,,,,,,,,,,,,,,,,,,,,,,,,,,,,,,,,,,,,/muse/elements/jaw_clench
2019-05-21 10:57:09.656,1.1349016,1.355193,1.4349859,1.3450861,0.42918003,0.73889834,0.625217,0.46925038,0.40981868,0.433256,0.11321337,0.5653486,0.9700461,0.51783955,0.4710539,0.31802878,0.91409135,0.10139353,0.3499884,-0.06949943,25.384615,974.68866,792.5641,867.1062,841.7216,0.39593505859375,0.21728515625,0.892333984375,-0.665435791015625,3.48419189453125,2.31781005859375,1,4.0,1.0,4.0,1.0,23.17
2019-05-21 10:57:09,,,,,,,,,,,,,,,,,,,,,,,,,,,,,,,,,,,,,,/muse/elements/jaw_clench
2019-05-21 10:57:09,,,,,,,,,,,,,,,,,,,,,,,,,,,,,,,,,,,,,,/muse/elements/jaw_clench
2019-05-21 10:57:10.717,1.1349016,1.355193,1.4349859,1.5571709,0.42918003,0.73889834,0.625217,0.79198605,0.40981868,0.433256,0.11321337,0.8921281,0.9700461,0.51783955,0.4710539,0.3332182,0.91409135,0.10139353,0.3499884,-0.061898913,1604.0659,871.13556,737.76556,844.5421,848.97437,0.5062255859375,0.27252197265625,0.82012939453125,-3.043060302734375,6.033782958984375,4.66552734375,1,4.0,1.0,2.0,1.0,23.17
2019-05-21 10:57:11,,,,,,,,,,,,,,,,,,,,,,,,,,,,,,,,,,,,,,/muse/elements/jaw_clench
2019-05-21 10:57:11,,,,,,,,,,,,,,,,,,,,,,,,,,,,,,,,,,,,,,/muse/elements/jaw_clench
2019-05-21 10:57:11.722,1.1349016,1.355193,1.4349859,0.7552256,0.42918003,0.73889834,0.625217,0.3155981,0.40981868,0.433256,0.11321337,0.541349,0.9700461,0.51783955,0.4710539,0.09581883,0.91409135,0.10139353,0.3499884,0.34583434,1352.6373,711.5751,514.94507,332.01465,803.8461,0.49957275390625,0.2578125,0.80755615234375,-1.278533935546875,6.23565673828125,3.9178466796875,1,4.0,1.0,2.0,1.0,23.17
2019-05-21 10:57:11,,,,,,,,,,,,,,,,,,,,,,,,,,,,,,,,,,,,,,/muse/elements/jaw_clench
2019-05-21 10:57:11,,,,,,,,,,,,,,,,,,,,,,,,,,,,,,,,,,,,,,/muse/elements/blink
2019-05-21 10:57:12,,,,,,,,,,,,,,,,,,,,,,,,,,,,,,,,,,,,,,/muse/elements/jaw_clench
2019-05-21 10:57:12.726,1.1349016,1.355193,1.4349859,0.49834046,0.42918003,0.73889834,0.625217,0.10849391,0.40981868,0.433256,0.11321337,0.42323187,0.9700461,0.51783955,0.4710539,0.065452024,0.91409135,0.10139353,0.3499884,0.38472438,1602.0513,950.5128,25.384615,771.6117,863.47986,0.3614501953125,0.22161865234375,0.93695068359375,6.98333740234375,-8.673095703125,4.306640625,1,4.0,1.0,2.0,1.0,23.17
2019-05-21 10:57:12,,,,,,,,,,,,,,,,,,,,,,,,,,,,,,,,,,,,,,/muse/elements/blink
2019-05-21 10:57:13,,,,,,,,,,,,,,,,,,,,,,,,,,,,,,,,,,,,,,/muse/elements/blink
2019-05-21 10:57:13,,,,,,,,,,,,,,,,,,,,,,,,,,,,,,,,,,,,,,/muse/elements/jaw_clench
2019-05-21 10:57:13.748,1.1349016,1.355193,1.4349859,0.4144963,0.42918003,0.73889834,0.625217,0.10972082,0.40981868,0.433256,0.11321337,0.42156222,0.9700461,0.51783955,0.4710539,0.072770216,0.91409135,0.10139353,0.3499884,0.38278243,1650.0,942.0513,1156.4103,748.6447,883.6264,0.50067138671875,0.243896484375,0.971923828125,-2.729034423828125,11.065673828125,9.46563720703125,1,4.0,1.0,4.0,1.0,23.17
2019-05-21 10:57:13,,,,,,,,,,,,,,,,,,,,,,,,,,,,,,,,,,,,,,/muse/elements/blink
2019-05-21 10:57:13,,,,,,,,,,,,,,,,,,,,,,,,,,,,,,,,,,,,,,/muse/elements/blink
2019-05-21 10:57:14,,,,,,,,,,,,,,,,,,,,,,,,,,,,,,,,,,,,,,/muse/elements/blink
2019-05-21 10:57:14.760,1.1349016,1.355193,1.4349859,0.4144963,0.42918003,0.73889834,0.625217,0.10972082,0.40981868,0.433256,0.11321337,0.42156222,0.9700461,0.51783955,0.4710539,0.072770216,0.91409135,0.10139353,0.3499884,0.38278243,0.4029304,927.1429,817.5458,888.86444,846.1539,0.243408203125,0.25177001953125,0.953369140625,1.60003662109375,5.14404296875,3.84307861328125,1,4.0,1.0,4.0,2.0,23.17
2019-05-21 10:57:14,,,,,,,,,,,,,,,,,,,,,,,,,,,,,,,,,,,,,,/muse/elements/blink
2019-05-21 10:57:15,,,,,,,,,,,,,,,,,,,,,,,,,,,,,,,,,,,,,,/muse/elements/blink
2019-05-21 10:57:15,,,,,,,,,,,,,,,,,,,,,,,,,,,,,,,,,,,,,,/muse/elements/blink
2019-05-21 10:57:15.783,1.1349016,1.355193,1.4349859,0.4144963,0.42918003,0.73889834,0.625217,0.10972082,0.40981868,0.433256,0.11321337,0.42156222,0.9700461,0.51783955,0.4710539,0.072770216,0.91409135,0.10139353,0.3499884,0.38278243,1649.597,878.3883,867.9121,882.8205,868.315,0.27789306640625,0.2257080078125,0.927978515625,-0.85235595703125,2.220611572265625,5.263671875,1,4.0,1.0,4.0,2.0,23.17
2019-05-21 10:57:16.816,1.1349016,1.355193,1.4321477,0.4144963,0.42918003,0.73889834,0.816384,0.10972082,0.40981868,0.433256,0.83090216,0.42156222,0.9700461,0.51783955,0.7805612,0.072770216,0.91409135,0.10139353,0.51756984,0.38278243,25.384615,872.3443,802.6374,805.8608,852.6007,0.27899169921875,0.22760009765625,0.924560546875,-1.68975830078125,5.1739501953125,3.9776611328125,1,4.0,1.0,1.0,2.0,23.16
2019-05-21 10:57:16,,,,,,,,,,,,,,,,,,,,,,,,,,,,,,,,,,,,,,/muse/elements/blink
2019-05-21 10:57:17.848,1.1349016,1.4378456,1.3215699,1.2327446,0.42918003,0.24040596,0.6664144,1.0034465,0.40981868,0.46300864,0.8568284,1.222267,0.9700461,0.05828013,0.8269453,0.86215407,0.91409135,-0.26516023,0.55089724,0.17345181,1089.5238,868.315,851.79486,848.97437,818.3516,0.277099609375,0.22998046875,0.9290771484375,-1.375732421875,4.29168701171875,4.687957763671875,1,4.0,1.0,1.0,1.0,23.16
2019-05-21 10:57:18.882,1.1349016,0.8757986,1.6186085,1.280956,0.42918003,0.23208405,0.8232624,0.9257,0.40981868,0.4584502,0.5522202,1.1660215,0.9700461,-0.0074590375,0.90099525,0.71354246,0.91409135,-0.3653628,0.43591136,0.07265378,1639.1208,878.3883,838.49817,864.2857,855.82416,0.27581787109375,0.22705078125,0.9293212890625,-1.532745361328125,4.56085205078125,4.486083984375,1,4.0,1.0,1.0,1.0,23.16
2019-05-21 10:57:19,,,,,,,,,,,,,,,,,,,,,,,,,,,,,,,,,,,,,,/muse/elements/blink
2019-05-21 10:57:19.887,1.1349016,1.0980375,1.7635791,1.40857,0.42918003,0.75386983,1.1065192,0.9965223,0.40981868,0.6292274,0.8263238,1.0117623,0.9700461,0.21392739,0.7602672,0.47797891,0.91409135,-0.24016954,0.5684806,0.0683042,93.47985,862.674,836.08057,844.1392,904.57874,0.287353515625,0.22967529296875,0.92742919921875,-1.173858642578125,4.47113037109375,4.344024658203125,1,4.0,1.0,1.0,1.0,23.16
2019-05-21 10:57:19,,,,,,,,,,,,,,,,,,,,,,,,,,,,,,,,,,,,,,/muse/elements/blink
2019-05-21 10:57:20.918,1.1349016,1.1128002,1.4619837,1.2527726,0.42918003,0.7900491,0.94845784,0.90882564,0.40981868,0.5707793,1.0202829,1.1734753,0.9700461,0.11973797,0.8989857,0.62985015,0.91409135,-0.24965297,0.67019206,0.12437315,1650.0,881.6117,688.60803,846.55676,844.1392,0.27923583984375,0.2396240234375,0.92364501953125,-1.0467529296875,4.104766845703125,4.56085205078125,1,4.0,1.0,1.0,1.0,23.16
2019-05-21 10:57:21,,,,,,,,,,,,,,,,,,,,,,,,,,,,,,,,,,,,,,/muse/elements/blink
2019-05-21 10:57:21.922,1.1349016,0.8336213,1.1893123,1.1441871,0.42918003,0.7519925,0.40861484,0.85408264,0.40981868,0.35945266,0.5871507,0.98994327,0.9700461,-0.104251124,0.7554249,0.49885204,0.91409135,-0.40757355,0.53087366,0.023045804,1650.0,846.55676,827.2161,920.696,893.2967,0.26812744140625,0.2298583984375,0.92535400390625,-1.5252685546875,4.2767333984375,5.286102294921875,1,4.0,1.0,1.0,1.0,23.16
2019-05-21 10:57:22,,,,,,,,,,,,,,,,,,,,,,,,,,,,,,,,,,,,,,/muse/elements/blink
2019-05-21 10:57:22.941,1.1349016,0.8336213,1.1893123,1.1881266,0.42918003,0.7519925,0.40861484,0.9797633,0.40981868,0.35945266,0.5871507,1.2675141,0.9700461,-0.104251124,0.7554249,0.66785914,0.91409135,-0.40757355,0.53087366,0.08715431,1650.0,873.95605,832.8571,813.91943,879.19415,0.27093505859375,0.2325439453125,0.9300537109375,-1.712188720703125,4.538421630859375,4.2767333984375,1,4.0,1.0,1.0,1.0,23.16
2019-05-21 10:57:23.960,1.1349016,0.9086518,1.6875724,1.0150895,0.42918003,0.20135316,0.9990403,0.71301085,0.40981868,0.566702,0.6693333,0.5395879,0.9700461,0.12693152,1.1288072,0.47172996,0.91409135,-0.24577111,0.9309286,0.1079053,25.384615,869.5238,860.65936,846.1539,843.3333,0.28082275390625,0.2271728515625,0.92535400390625,-0.919647216796875,4.224395751953125,3.7982177734375,1,4.0,1.0,1.0,1.0,23.16
2019-05-21 10:57:24.975,1.1349016,1.2333922,1.6486323,0.9368159,0.42918003,0.6155665,1.2416992,0.5951736,0.40981868,0.48383877,1.0974492,0.64792943,0.9700461,0.1731146,1.1250232,0.4455742,0.91409135,-0.15156238,0.8353259,0.106182314,1645.1648,858.6447,811.9048,819.15753,881.6117,0.2734375,0.2283935546875,0.92730712890625,-1.577606201171875,3.551483154296875,3.3795166015625,1,4.0,1.0,1.0,1.0,23.16
2019-05-21 10:57:25.989,1.1349016,1.1037064,1.7768854,1.5495476,0.42918003,0.6944942,1.1572093,1.0605513,0.40981868,0.45247602,1.1425811,1.2927881,0.9700461,0.008046225,1.0421919,0.85549253,0.91409135,-0.3192366,0.762263,0.053394005,97.106224,868.315,859.85345,898.93774,837.6923,0.27984619140625,0.23651123046875,0.92572021484375,-1.2860107421875,4.44122314453125,3.820648193359375,1,4.0,1.0,1.0,1.0,23.16
2019-05-21 10:57:26,,,,,,,,,,,,,,,,,,,,,,,,,,,,,,,,,,,,,,/muse/elements/blink
2019-05-21 10:57:26.997,1.1349016,0.80044824,1.6535403,1.3097543,0.42918003,0.35473663,0.6832358,0.7972176,0.40981868,0.41943184,0.7317495,1.0211308,0.9700461,-0.1967383,1.0275557,0.5888848,0.91409135,-0.34775737,0.68171775,-0.009428123,3.2234433,873.5531,833.2601,846.9597,894.5055,0.284912109375,0.23858642578125,0.9271240234375,-0.79254150390625,4.0374755859375,4.1571044921875,1,4.0,1.0,1.0,1.0,23.16
2019-05-21 10:57:28.024,1.1349016,0.8057348,1.6492316,0.92507684,0.42918003,0.1952007,0.44085827,0.41883016,0.40981868,0.3926277,0.33318713,0.7851176,0.9700461,0.19659214,1.0616935,0.5892234,0.91409135,-0.18444318,0.62525755,0.16954339,566.52014,873.1502,823.9927,851.79486,816.337,0.28179931640625,0.23736572265625,0.92230224609375,-1.07666015625,4.50103759765625,4.687957763671875,1,4.0,1.0,1.0,1.0,23.16
2019-05-21 10:57:29.044,1.1349016,0.915191,1.6492316,0.8142825,0.42918003,0.20112182,0.44085827,0.16417868,0.40981868,0.42319766,0.33318713,0.89646244,0.9700461,0.106631584,1.0616935,0.29113558,0.91409135,-0.30389494,0.62525755,-0.040281452,31.02564,863.0769,795.38464,860.65936,848.97437,0.28369140625,0.23834228515625,0.9239501953125,-0.97198486328125,4.224395751953125,4.553375244140625,1,4.0,1.0,1.0,1.0,23.16
2019-05-21 10:57:29,,,,,,,,,,,,,,,,,,,,,,,,,,,,,,,,,,,,,,/muse/elements/blink
2019-05-21 10:57:30.065,1.1349016,1.1825794,1.6492316,0.8791812,0.42918003,0.65546876,0.44085827,0.27985716,0.40981868,0.32972163,0.33318713,0.64104974,0.9700461,0.06751625,1.0616935,0.17376079,0.91409135,-0.44890657,0.62525755,-0.079201765,248.20512,852.6007,858.24176,875.16486,842.52747,0.2933349609375,0.24566650390625,0.92108154296875,-0.545806884765625,4.299163818359375,3.70849609375,1,4.0,1.0,1.0,1.0,23.16
2019-05-21 10:57:31.095,1.1349016,1.2322056,1.0538641,1.2527252,0.42918003,0.81828445,0.5475948,0.56990665,0.40981868,0.30104876,0.3646104,0.5483042,0.9700461,0.18513584,1.2619662,0.25227773,0.91409135,-0.11060758,1.1710001,0.05882804,1650.0,865.09155,845.34796,852.6007,850.58606,0.2850341796875,0.24395751953125,0.919677734375,-0.67291259765625,4.2169189453125,4.269256591796875,1,4.0,1.0,1.0,1.0,23.16
2019-05-21 10:57:32.110,1.1349016,0.9156897,1.0293014,0.9304234,0.42918003,0.37120402,0.626398,0.7373095,0.40981868,0.11554463,0.6449078,0.4300312,0.9700461,0.13761516,1.3019185,0.11168384,0.91409135,-0.0022724995,1.1671321,-0.10074127,24.578754,850.58606,843.3333,821.5751,851.79486,0.28369140625,0.24505615234375,0.9200439453125,-1.016845703125,4.044952392578125,4.418792724609375,1,4.0,1.0,1.0,1.0,23.16
2019-05-21 10:57:33.124,1.1349016,1.5244536,1.1613735,0.8189469,0.42918003,0.579255,0.96466464,0.80912143,0.40981868,0.14016627,0.78427815,0.4300312,0.9700461,0.018087342,1.2218099,0.11862615,0.91409135,-0.3362411,1.2573774,-0.2946333,1339.3407,871.53845,819.5604,848.1685,842.9304,0.29595947265625,0.24737548828125,0.9207763671875,-1.09161376953125,4.000091552734375,4.38140869140625,1,4.0,1.0,1.0,1.0,23.16
2019-05-21 10:57:34.155,1.1349016,1.2044923,1.0765984,0.8189469,0.42918003,0.43230182,0.824094,0.80912143,0.40981868,0.23901576,0.81901515,0.4300312,0.9700461,-0.077047616,1.2384993,0.11862615,0.91409135,-0.29745796,1.2071595,-0.2946333,1149.5604,869.92676,822.7839,857.8388,864.68866,0.2916259765625,0.248046875,0.92010498046875,-1.016845703125,4.478607177734375,3.880462646484375,1,4.0,1.0,1.0,1.0,23.16
2019-05-21 10:57:35.190,1.1349016,0.6655068,1.0292778,0.96657336,0.42918003,0.30167547,0.63457954,0.51863426,0.40981868,0.36252227,0.57785946,0.79070807,0.9700461,-0.25998807,1.2745335,0.36436376,0.91409135,-0.2974331,1.1112438,-0.21827364,1323.6263,869.5238,811.0989,843.73627,817.1429,0.300048828125,0.24114990234375,0.9173583984375,-1.263580322265625,4.127197265625,4.194488525390625,1,4.0,1.0,1.0,1.0,23.16
2019-05-21 10:57:36.221,1.1349016,0.49921668,1.0292778,0.74866205,0.42918003,0.31704396,0.63457954,0.36299926,0.40981868,0.3717769,0.57785946,0.7929798,0.9700461,-0.23935471,1.2745335,0.34321076,0.91409135,-0.5709131,1.1112438,-0.14300421,1249.8901,869.12085,819.15753,858.24176,846.1539,0.2906494140625,0.25115966796875,0.9150390625,-0.8074951171875,4.553375244140625,3.805694580078125,1,4.0,1.0,1.0,1.0,23.14
2019-05-21 10:57:37.266,1.1349016,0.84913373,1.0292778,0.3743002,0.42918003,-0.054142047,0.63457954,0.5022688,0.40981868,0.019476669,0.57785946,0.59713405,0.9700461,-0.2624153,1.2745335,0.1847371,0.91409135,-0.6024598,1.1112438,-0.1961622,25.384615,856.2271,816.7399,863.47986,863.0769,0.29107666015625,0.2515869140625,0.9183349609375,-1.15142822265625,4.3365478515625,4.269256591796875,1,4.0,1.0,1.0,1.0,23.14
2019-05-21 10:57:38.279,1.1349016,1.0250051,1.0292778,0.8211747,0.42918003,0.40442285,0.63457954,0.2965374,0.40981868,0.054014042,0.57785946,0.5648125,0.9700461,-0.3087863,1.2745335,0.32944852,0.91409135,-0.4349065,1.1112438,0.064275905,1650.0,872.3443,801.4286,856.63007,844.5421,0.29693603515625,0.25018310546875,0.918212890625,-1.772003173828125,4.6356201171875,3.835601806640625,1,4.0,1.0,1.0,1.0,23.14
2019-05-21 10:57:39.304,1.1349016,1.1123098,0.89327574,0.9617087,0.42918003,0.740293,0.47707573,0.5688164,0.40981868,0.5776365,0.9290429,0.7183763,0.9700461,-0.21053955,1.5222989,0.38256666,0.91409135,-0.5019986,1.3695203,-0.07467593,35.860806,861.4652,855.82416,860.65936,855.82416,0.291259765625,0.25128173828125,0.91455078125,-1.338348388671875,4.493560791015625,3.78326416015625,1,4.0,1.0,1.0,1.0,23.14
2019-05-21 10:57:39,,,,,,,,,,,,,,,,,,,,,,,,,,,,,,,,,,,,,,/muse/elements/blink
2019-05-21 10:57:39,,,,,,,,,,,,,,,,,,,,,,,,,,,,,,,,,,,,,,/muse/elements/jaw_clench
2019-05-21 10:57:40.331,1.1349016,1.4759129,0.89327574,0.80285835,0.42918003,1.1607248,0.47707573,0.60010546,0.40981868,0.722806,0.9290429,0.6713432,0.9700461,0.15153119,1.5222989,0.4240171,0.91409135,-0.46373692,1.3695203,-0.022679674,25.384615,852.6007,778.46155,857.8388,856.2271,0.2874755859375,0.25213623046875,0.921630859375,-1.27105712890625,4.852447509765625,4.38140869140625,1,4.0,1.0,4.0,1.0,23.14
2019-05-21 10:57:40,,,,,,,,,,,,,,,,,,,,,,,,,,,,,,,,,,,,,,/muse/elements/jaw_clench
2019-05-21 10:57:40,,,,,,,,,,,,,,,,,,,,,,,,,,,,,,,,,,,,,,/muse/elements/blink
2019-05-21 10:57:41.370,1.1349016,1.5643755,0.89327574,0.4517646,0.42918003,1.206128,0.47707573,0.35279804,0.40981868,0.53894,0.9290429,0.35191822,0.9700461,0.21302548,1.5222989,0.2552834,0.91409135,-0.1515783,1.3695203,0.06554166,1650.0,870.7326,832.0513,849.7802,813.1135,0.29766845703125,0.25360107421875,0.9110107421875,-1.472930908203125,4.14215087890625,3.925323486328125,1,4.0,1.0,2.0,1.0,23.14
2019-05-21 10:57:41,,,,,,,,,,,,,,,,,,,,,,,,,,,,,,,,,,,,,,/muse/elements/jaw_clench
2019-05-21 10:57:42.408,1.1349016,1.3108975,0.89327574,0.12036603,0.42918003,0.8974001,0.47707573,0.008269318,0.40981868,0.58691967,0.9290429,0.4243717,0.9700461,0.21205503,1.5222989,0.081131496,0.91409135,-0.10960116,1.3695203,-0.2680742,25.384615,850.58606,736.1539,847.3626,852.1978,0.2960205078125,0.25732421875,0.9100341796875,-0.650482177734375,2.85614013671875,4.23187255859375,1,4.0,1.0,2.0,1.0,23.14
2019-05-21 10:57:42,,,,,,,,,,,,,,,,,,,,,,,,,,,,,,,,,,,,,,/muse/elements/jaw_clench
2019-05-21 10:57:43.435,1.1349016,1.5878744,0.89327574,0.68159264,0.42918003,0.3997323,0.47707573,0.39973062,0.40981868,0.41999066,0.9290429,0.77201194,0.9700461,0.17664537,1.5222989,0.07302654,0.91409135,-0.45289263,1.3695203,-0.2614428,1650.0,882.8205,846.55676,867.1062,828.4249,0.2913818359375,0.25262451171875,0.91424560546875,-1.00189208984375,3.671112060546875,4.972076416015625,1,4.0,1.0,2.0,1.0,23.14
2019-05-21 10:57:44,,,,,,,,,,,,,,,,,,,,,,,,,,,,,,,,,,,,,,/muse/elements/blink
2019-05-21 10:57:44.471,1.1349016,1.4364296,0.89327574,1.4478396,0.42918003,0.77344316,0.47707573,1.1639557,0.40981868,0.5587437,0.9290429,1.1106685,0.9700461,0.14717217,1.5222989,0.2948963,0.91409135,-0.37731668,1.3695203,-0.042168148,199.85349,859.85345,632.6007,847.3626,820.3663,0.30145263671875,0.2542724609375,0.91436767578125,-1.2860107421875,5.136566162109375,4.583282470703125,1,4.0,1.0,2.0,1.0,23.14
2019-05-21 10:57:45,,,,,,,,,,,,,,,,,,,,,,,,,,,,,,,,,,,,,,/muse/elements/jaw_clench
2019-05-21 10:57:45.496,1.1349016,1.2013383,0.89327574,0.83893865,0.42918003,0.8117844,0.47707573,0.56444454,0.40981868,0.5092984,0.9290429,0.31460166,0.9700461,-0.025958693,1.5222989,0.13351603,0.91409135,-0.48379663,1.3695203,0.072803915,15.714286,852.6007,929.9634,854.61536,805.8608,0.29547119140625,0.2567138671875,0.91448974609375,-1.39068603515625,4.74029541015625,4.42626953125,1,4.0,1.0,2.0,1.0,23.14
2019-05-21 10:57:46,,,,,,,,,,,,,,,,,,,,,,,,,,,,,,,,,,,,,,/muse/elements/blink
2019-05-21 10:57:46.506,1.1349016,1.4717865,0.89327574,0.75368375,0.42918003,1.0931183,0.47707573,0.6476671,0.40981868,0.9102707,0.9290429,0.6350602,0.9700461,0.17141026,1.5222989,0.30849084,0.91409135,-0.4116811,1.3695203,0.052081823,1650.0,862.674,768.7912,850.58606,876.3736,0.2965087890625,0.2557373046875,0.90728759765625,-1.7645263671875,4.35150146484375,3.342132568359375,1,4.0,1.0,2.0,1.0,23.14
2019-05-21 10:57:47.547,1.1349016,1.4458721,0.89327574,0.06034652,0.42918003,1.0713838,0.47707573,0.15581013,0.40981868,0.8539042,0.9290429,0.50098854,0.9700461,0.12232318,1.5222989,0.14178127,0.91409135,-0.35602596,1.3695203,-0.2198949,1650.0,837.28937,999.2674,840.9158,877.1795,0.27972412109375,0.257568359375,0.923583984375,-0.829925537109375,4.306640625,4.015045166015625,1,4.0,1.0,2.0,1.0,23.14
2019-05-21 10:57:48.555,1.1349016,1.249172,0.89327574,0.57823193,0.42918003,0.80043554,0.47707573,0.32157424,0.40981868,0.8780177,0.9290429,0.7603658,0.9700461,0.10847347,1.5222989,0.2756647,0.91409135,-0.53690803,1.3695203,-0.13351174,25.384615,854.61536,776.4469,869.5238,837.6923,0.28887939453125,0.26251220703125,0.9150390625,-1.158905029296875,4.725341796875,3.985137939453125,1,4.0,1.0,2.0,1.0,23.14
2019-05-21 10:57:49.583,1.1349016,1.4520946,0.89327574,0.5753229,0.42918003,1.1010197,0.47707573,0.59756505,0.40981868,1.0103015,0.9290429,0.7503311,0.9700461,0.38668045,1.5222989,0.4406928,0.91409135,-0.5179649,1.3695203,0.02338442,1083.8828,870.7326,976.30035,855.82416,877.5824,0.28326416015625,0.2625732421875,0.91876220703125,-1.517791748046875,5.196380615234375,5.5029296875,1,4.0,1.0,2.0,1.0,23.14
2019-05-21 10:57:50,,,,,,,,,,,,,,,,,,,,,,,,,,,,,,,,,,,,,,/muse/elements/jaw_clench
2019-05-21 10:57:50.595,1.1349016,1.3809836,0.89327574,0.24470507,0.42918003,0.9242354,0.47707573,0.2648189,0.40981868,0.90573967,0.9290429,0.4029966,0.9700461,0.330533,1.5222989,0.3232509,0.91409135,-0.48010817,1.3695203,0.0051295334,23.369963,861.4652,774.43225,847.76556,785.7143,0.28839111328125,0.263671875,0.91864013671875,-0.770111083984375,4.074859619140625,4.134674072265625,1,4.0,1.0,2.0,1.0,23.14
2019-05-21 10:57:51,,,,,,,,,,,,,,,,,,,,,,,,,,,,,,,,,,,,,,/muse/elements/jaw_clench
2019-05-21 10:57:51.630,1.1349016,1.1953177,0.89327574,0.9196902,0.42918003,0.44601652,0.47707573,0.6207764,0.40981868,0.22022931,0.9290429,0.9370029,0.9700461,0.036490895,1.5222989,0.340205,0.91409135,-0.537603,1.3695203,-0.107212424,25.384615,860.65936,975.89746,851.39197,826.4103,0.28680419921875,0.26434326171875,0.9130859375,-1.136474609375,4.523468017578125,3.69354248046875,1,4.0,1.0,2.0,1.0,23.14
2019-05-21 10:57:52.657,1.1349016,1.1807636,0.89327574,0.8023327,0.42918003,0.5547414,0.47707573,0.61112696,0.40981868,0.75024873,0.9290429,0.96900254,0.9700461,0.0778025,1.5222989,0.36977044,0.91409135,-0.47025698,1.3695203,-0.23677203,26.593407,850.18317,863.47986,855.42126,851.39197,0.28759765625,0.2703857421875,0.9127197265625,-1.1663818359375,4.80010986328125,4.2169189453125,1,4.0,1.0,2.0,1.0,23.14
2019-05-21 10:57:53.670,1.1349016,1.3636477,0.89327574,0.672253,0.42918003,0.9031669,0.47707573,0.42193818,0.40981868,1.0152086,0.9290429,0.8726115,0.9700461,0.1855733,1.5222989,0.4096495,0.91409135,-0.41848785,1.3695203,-0.08002556,0.0,864.2857,835.6777,863.8828,803.44324,0.292724609375,0.2685546875,0.91314697265625,-0.8673095703125,4.007568359375,4.463653564453125,1,4.0,1.0,2.0,1.0,23.14
2019-05-21 10:57:54.684,1.1349016,1.4561366,0.89327574,0.66337365,0.42918003,0.83081686,0.47707573,0.07823516,0.40981868,1.0137038,0.9290429,0.55135924,0.9700461,0.12381952,1.5222989,0.35076764,0.91409135,-0.5877135,1.3695203,-0.016425645,151.50183,837.28937,686.1905,914.2491,846.1539,0.29156494140625,0.26763916015625,0.91680908203125,-1.173858642578125,3.94775390625,3.66363525390625,1,4.0,1.0,2.0,1.0,23.14
2019-05-21 10:57:54,,,,,,,,,,,,,,,,,,,,,,,,,,,,,,,,,,,,,,/muse/elements/blink
2019-05-21 10:57:55.694,1.1349016,1.4198707,0.89327574,0.16372682,0.42918003,1.0372891,0.47707573,-0.11176432,0.40981868,1.0645089,0.9290429,0.44993585,0.9700461,0.114478946,1.5222989,0.015243402,0.91409135,-0.43986738,1.3695203,-0.12687807,25.384615,842.9304,797.8022,848.5714,813.91943,0.2904052734375,0.2724609375,0.91729736328125,-0.665435791015625,4.119720458984375,4.366455078125,1,4.0,1.0,2.0,1.0,23.14
2019-05-21 10:57:56.705,1.1349016,1.2627465,0.89327574,1.1402632,0.42918003,0.6313139,0.47707573,0.67701733,0.40981868,0.8038078,0.9290429,0.5242969,0.9700461,0.15498975,1.5222989,0.28580406,0.91409135,-0.53469586,1.3695203,-0.07922757,1650.0,862.674,899.7436,846.55676,855.0183,0.3006591796875,0.27264404296875,0.90875244140625,-0.919647216796875,4.852447509765625,4.882354736328125,1,4.0,1.0,2.0,1.0,23.13
2019-05-21 10:57:57,,,,,,,,,,,,,,,,,,,,,,,,,,,,,,,,,,,,,,/muse/elements/jaw_clench
2019-05-21 10:57:57.729,1.1349016,1.0329759,0.89327574,1.178678,0.42918003,0.5973089,0.47707573,0.7120845,0.40981868,0.24735495,0.9290429,0.56169164,0.9700461,0.16494258,1.5222989,0.46029243,0.91409135,-0.3856499,1.3695203,-0.070455655,1650.0,770.80585,1650.0,847.76556,823.5897,0.234619140625,0.26251220703125,0.95147705078125,5.959014892578125,12.06756591796875,-15.59661865234375,1,4.0,1.0,2.0,1.0,23.13
